! File: C:\Documents and Settings\PROBER\Desktop\Date & Meas\2014\20140508_NOC\T1200_01.ivc 
! Comment: 
! Date: Thursday, May 08, 2014 12:35:53
! Frequency: 0 GHz
! Char.Impedances: Source = 50 + 0j Ohm   Load = 50 + 0j Ohm
! Load Frequencies:  N\A 
! Load Impedances (Polar):  N\A 
! Load Impedances:  N\A 
! Source Frequencies:  N\A 
! Source Impedances (Polar):  N\A 
! Source Impedances:  N\A 
! Setup: C:\Documents and Settings\PROBER\Desktop\Date & Meas\2014\20140508_NOC\CW_IV_curve.set 
! Reference Plane: DUT 
! --------------------------------------------------------
! TITLES: I2[mA]   _V1Set[V]   _V2Set[V]   
! --------------------------------------------------------
     0.291    -6.000     0.000
     0.294    -6.000     0.500
     0.285    -6.000     1.000
     0.288    -6.000     1.500
     0.275    -6.000     2.000
     0.266    -6.000     2.500
     0.288    -6.000     4.500
     0.278    -6.000     6.500
     0.272    -6.000     8.500
     0.247    -6.000    10.500
     0.241    -6.000    12.500
     0.231    -6.000    14.500
     0.206    -6.000    16.500
     0.190    -6.000    18.500
     0.175    -6.000    20.500
     0.175    -6.000    22.500
     0.150    -6.000    24.500
     0.093    -6.000    25.000
     0.096    -5.500     0.000
     0.203    -5.500     0.500
     0.234    -5.500     1.000
     0.238    -5.500     1.500
     0.241    -5.500     2.000
     0.244    -5.500     2.500
     0.244    -5.500     3.000
     0.266    -5.500     3.500
     0.310    -5.500     5.500
     0.341    -5.500     7.500
     0.404    -5.500     9.500
     0.489    -5.500    11.500
     0.577    -5.500    13.500
     0.715    -5.500    15.500
     0.935    -5.500    17.500
     1.272    -5.500    19.500
     1.577    -5.500    21.500
     2.089    -5.500    23.500
     2.124    -5.500    24.000
     2.309    -5.500    24.500
     2.529    -5.500    25.000
     0.128    -5.000     0.000
     2.268    -5.000     0.500
     4.079    -5.000     1.000
     5.987    -5.000     1.500
     7.974    -5.000     2.000
    10.023    -5.000     2.500
    11.894    -5.000     3.000
    13.682    -5.000     3.500
    15.521    -5.000     4.000
    17.624    -5.000     4.500
    20.108    -5.000     5.000
    22.554    -5.000     5.500
    24.600    -5.000     6.000
    26.436    -5.000     6.500
    27.898    -5.000     7.000
    29.450    -5.000     7.500
    31.016    -5.000     8.000
    32.625    -5.000     8.500
    34.238    -5.000     9.000
    35.775    -5.000     9.500
    37.363    -5.000    10.000
    38.960    -5.000    10.500
    40.293    -5.000    11.000
    41.644    -5.000    11.500
    43.024    -5.000    12.000
    44.272    -5.000    12.500
    45.407    -5.000    13.000
    46.633    -5.000    13.500
    47.758    -5.000    14.000
    48.940    -5.000    14.500
    50.050    -5.000    15.000
    51.144    -5.000    15.500
    52.141    -5.000    16.000
    53.194    -5.000    16.500
    54.281    -5.000    17.000
    55.256    -5.000    17.500
    56.274    -5.000    18.000
    57.365    -5.000    18.500
    58.399    -5.000    19.000
    59.270    -5.000    19.500
    60.320    -5.000    20.000
    61.244    -5.000    20.500
    62.263    -5.000    21.000
    63.234    -5.000    21.500
    64.149    -5.000    22.000
    65.092    -5.000    22.500
    66.092    -5.000    23.000
    66.994    -5.000    23.500
    67.861    -5.000    24.000
    68.867    -5.000    24.500
    69.785    -5.000    25.000
     0.480    -4.500     0.000
    44.807    -4.500     0.500
    63.743    -4.500     1.000
    73.724    -4.500     1.500
    80.806    -4.500     2.000
    86.044    -4.500     2.500
    89.743    -4.500     3.000
    93.035    -4.500     3.500
    96.125    -4.500     4.000
   101.029    -4.500     4.500
   110.164    -4.500     5.000
   119.906    -4.500     5.500
   124.885    -4.500     6.000
   128.198    -4.500     6.500
   131.097    -4.500     7.000
   133.558    -4.500     7.500
   141.939    -4.500     9.500
   147.377    -4.500    11.500
   151.322    -4.500    13.500
   154.129    -4.500    15.500
   156.280    -4.500    17.500
   157.949    -4.500    19.500
   158.999    -4.500    21.500
   159.423    -4.500    23.500
   159.392    -4.500    25.000
     0.586    -4.000     0.000
    61.832    -4.000     0.500
   117.174    -4.000     1.000
   156.915    -4.000     1.500
   174.371    -4.000     2.000
   183.220    -4.000     2.500
   188.985    -4.000     3.000
   193.320    -4.000     3.500
   196.313    -4.000     4.000
   198.541    -4.000     4.500
   203.495    -4.000     5.000
   215.960    -4.000     5.500
   231.970    -4.000     6.000
   238.599    -4.000     6.500
   242.419    -4.000     7.000
   245.122    -4.000     7.500
   247.109    -4.000     8.000
   248.624    -4.000     8.500
   249.844    -4.000     9.000
   250.909    -4.000     9.500
   251.623    -4.000    10.000
   252.195    -4.000    10.500
   253.559    -4.000    12.500
   253.173    -4.000    14.500
   251.412    -4.000    16.500
   248.388    -4.000    18.500
!   244.091    -4.000    20.500
     0.627    -3.500     0.000
    65.425    -3.500     0.500
   127.441    -3.500     1.000
   183.286    -3.500     1.500
   228.958    -3.500     2.000
   260.551    -3.500     2.500
   278.220    -3.500     3.000
   286.299    -3.500     3.500
   292.649    -3.500     4.000
   297.343    -3.500     4.500
   300.514    -3.500     5.000
   301.982    -3.500     5.500
   302.171    -3.500     6.000
   305.390    -3.500     6.500
   317.861    -3.500     7.000
   334.659    -3.500     7.500
   345.476    -3.500     8.000
   350.908    -3.500     8.500
   354.021    -3.500     9.000
   355.602    -3.500     9.500
   356.482    -3.500    10.000
   356.818    -3.500    10.500
   356.781    -3.500    11.000
   356.356    -3.500    11.500
   355.640    -3.500    12.000
   354.718    -3.500    12.500
   353.618    -3.500    13.000
   352.213    -3.500    13.500
!   345.281    -3.500    15.500
     0.640    -3.000     0.000
    66.925    -3.000     0.500
   130.936    -3.000     1.000
   189.199    -3.000     1.500
   238.175    -3.000     2.000
   272.936    -3.000     2.500
   289.352    -3.000     3.000
   314.802    -3.000     3.500
   340.965    -3.000     4.000
   364.180    -3.000     4.500
   384.928    -3.000     5.000
   399.250    -3.000     5.500
   406.065    -3.000     6.000
   409.061    -3.000     6.500
   409.658    -3.000     7.000
   407.992    -3.000     7.500
   406.489    -3.000     8.000
   413.949    -3.000     8.500
   428.092    -3.000     9.000
   442.049    -3.000     9.500
   449.873    -3.000    10.000
   454.167    -3.000    10.500
!   455.855    -3.000    11.000
     0.662    -2.500     0.000
    68.572    -2.500     0.500
   134.275    -2.500     1.000
   194.241    -2.500     1.500
   243.315    -2.500     2.000
   275.658    -2.500     2.500
   295.045    -2.500     3.000
   322.821    -2.500     3.500
   351.543    -2.500     4.000
   379.845    -2.500     4.500
   407.011    -2.500     5.000
   433.090    -2.500     5.500
   457.399    -2.500     6.000
   459.967    -2.500     6.500
   459.973    -2.500     7.000
   459.970    -2.500     7.500
   459.970    -2.500     8.000
   459.970    -2.500     8.500
   459.967    -2.500     9.000
   459.967    -2.500     9.500
   459.973    -2.500    10.000
   459.967    -2.500    10.500
!   459.964    -2.500    11.000
     0.709    -2.000     0.000
    68.622    -2.000     0.500
   134.309    -2.000     1.000
   194.210    -2.000     1.500
   243.101    -2.000     2.000
   275.086    -2.000     2.500
   295.903    -2.000     3.000
   324.509    -2.000     3.500
   354.326    -2.000     4.000
   383.535    -2.000     4.500
   411.701    -2.000     5.000
   439.421    -2.000     5.500
   459.980    -2.000     6.000
   459.973    -2.000     6.500
   459.986    -2.000     7.000
   459.973    -2.000     7.500
   459.980    -2.000     8.000
   459.980    -2.000     8.500
   459.983    -2.000     9.000
   459.976    -2.000     9.500
   459.980    -2.000    10.000
   459.973    -2.000    10.500
!   459.973    -2.000    11.000
     0.719    -1.500     0.000
    69.405    -1.500     0.500
   135.755    -1.500     1.000
   195.920    -1.500     1.500
   244.151    -1.500     2.000
   274.640    -1.500     2.500
   297.016    -1.500     3.000
   326.697    -1.500     3.500
   356.702    -1.500     4.000
   386.169    -1.500     4.500
   414.801    -1.500     5.000
   442.634    -1.500     5.500
   459.980    -1.500     6.000
   459.986    -1.500     6.500
   459.998    -1.500     7.000
   459.980    -1.500     7.500
   459.998    -1.500     8.000
   459.992    -1.500     8.500
   459.989    -1.500     9.000
   459.983    -1.500     9.500
   459.980    -1.500    10.000
   459.995    -1.500    10.500
!   459.973    -1.500    11.000
     0.722    -1.000     0.000
    69.505    -1.000     0.500
   135.906    -1.000     1.000
   196.074    -1.000     1.500
   244.371    -1.000     2.000
   273.989    -1.000     2.500
   297.515    -1.000     3.000
   327.194    -1.000     3.500
   357.368    -1.000     4.000
   387.050    -1.000     4.500
   415.829    -1.000     5.000
   444.334    -1.000     5.500
   459.980    -1.000     6.000
   459.986    -1.000     6.500
   459.973    -1.000     7.000
   459.983    -1.000     7.500
   459.980    -1.000     8.000
   459.967    -1.000     8.500
   459.973    -1.000     9.000
   459.983    -1.000     9.500
   459.964    -1.000    10.000
   459.976    -1.000    10.500
!   459.967    -1.000    11.000
     0.706    -0.500     0.000
    69.700    -0.500     0.500
   136.274    -0.500     1.000
   196.498    -0.500     1.500
   244.440    -0.500     2.000
   273.474    -0.500     2.500
   297.632    -0.500     3.000
   327.335    -0.500     3.500
   357.661    -0.500     4.000
   387.232    -0.500     4.500
   416.269    -0.500     5.000
   444.957    -0.500     5.500
   459.970    -0.500     6.000
   459.961    -0.500     6.500
   459.970    -0.500     7.000
   459.964    -0.500     7.500
   459.964    -0.500     8.000
   459.945    -0.500     8.500
   459.958    -0.500     9.000
   459.951    -0.500     9.500
   459.958    -0.500    10.000
   459.958    -0.500    10.500
!   459.951    -0.500    11.000
     0.712     0.000     0.000
    69.785     0.000     0.500
   136.359     0.000     1.000
   196.394     0.000     1.500
   243.950     0.000     2.000
   272.304     0.000     2.500
   296.830     0.000     3.000
   326.631     0.000     3.500
   356.828     0.000     4.000
   383.840     0.000     4.500
   417.542     0.000     5.000
   445.790     0.000     5.500
   459.955     0.000     6.000
   459.948     0.000     6.500
   459.948     0.000     7.000
   459.964     0.000     7.500
   459.948     0.000     8.000
   459.939     0.000     8.500
   459.942     0.000     9.000
   459.948     0.000     9.500
   459.948     0.000    10.000
   459.951     0.000    10.500
!   459.948     0.000    11.000
