! File: C:\Documents and Settings\PROBER\Desktop\Date & Meas\2014\20140508_NOC\T600_01.ivc 
! Comment: 
! Date: Thursday, May 08, 2014 12:28:54
! Frequency: 0 GHz
! Char.Impedances: Source = 50 + 0j Ohm   Load = 50 + 0j Ohm
! Load Frequencies:  N\A 
! Load Impedances (Polar):  N\A 
! Load Impedances:  N\A 
! Source Frequencies:  N\A 
! Source Impedances (Polar):  N\A 
! Source Impedances:  N\A 
! Setup: C:\Documents and Settings\PROBER\Desktop\Date & Meas\2014\20140508_NOC\CW_IV_curve.set 
! Reference Plane: DUT 
! --------------------------------------------------------
! TITLES: I2[mA]   _V1Set[V]   _V2Set[V]   
! --------------------------------------------------------
     0.338    -6.000     0.000
     0.344    -6.000     0.500
     0.335    -6.000     1.000
     0.326    -6.000     1.500
     0.316    -6.000     2.000
     0.307    -6.000     2.500
     0.341    -6.000     4.500
     0.322    -6.000     6.500
     0.313    -6.000     8.500
     0.307    -6.000    10.500
     0.294    -6.000    12.500
     0.275    -6.000    14.500
     0.256    -6.000    16.500
     0.241    -6.000    18.500
     0.225    -6.000    20.500
     0.212    -6.000    22.500
     0.194    -6.000    24.500
     0.140    -6.000    25.000
     0.146    -5.500     0.000
     0.247    -5.500     0.500
     0.275    -5.500     1.000
     0.282    -5.500     1.500
     0.288    -5.500     2.000
     0.297    -5.500     2.500
     0.297    -5.500     3.000
     0.319    -5.500     3.500
     0.363    -5.500     5.500
     0.392    -5.500     7.500
     0.436    -5.500     9.500
     0.539    -5.500    11.500
     0.624    -5.500    13.500
     0.763    -5.500    15.500
     0.948    -5.500    17.500
     1.218    -5.500    19.500
     1.558    -5.500    21.500
     1.967    -5.500    23.500
     2.234    -5.500    25.000
     0.190    -5.000     0.000
     2.205    -5.000     0.500
     3.765    -5.000     1.000
     5.277    -5.000     1.500
     6.757    -5.000     2.000
     8.040    -5.000     2.500
     9.146    -5.000     3.000
    10.237    -5.000     3.500
    11.438    -5.000     4.000
    12.793    -5.000     4.500
    14.163    -5.000     5.000
    15.339    -5.000     5.500
    16.320    -5.000     6.000
    17.191    -5.000     6.500
    18.030    -5.000     7.000
    18.904    -5.000     7.500
    19.809    -5.000     8.000
    20.733    -5.000     8.500
    21.676    -5.000     9.000
    22.563    -5.000     9.500
    23.405    -5.000    10.000
    24.223    -5.000    10.500
    25.031    -5.000    11.000
    25.754    -5.000    11.500
    26.461    -5.000    12.000
    27.134    -5.000    12.500
    27.806    -5.000    13.000
    28.448    -5.000    13.500
    29.111    -5.000    14.000
    29.727    -5.000    14.500
    30.346    -5.000    15.000
    30.937    -5.000    15.500
    31.525    -5.000    16.000
    32.104    -5.000    16.500
    32.685    -5.000    17.000
    33.232    -5.000    17.500
    33.811    -5.000    18.000
    34.367    -5.000    18.500
    34.873    -5.000    19.000
    35.423    -5.000    19.500
    35.939    -5.000    20.000
    36.523    -5.000    20.500
    37.064    -5.000    21.000
    37.589    -5.000    21.500
    38.152    -5.000    22.000
    38.652    -5.000    22.500
    39.173    -5.000    23.000
    39.746    -5.000    23.500
    40.274    -5.000    24.000
    40.770    -5.000    24.500
    41.311    -5.000    25.000
     0.432    -4.500     0.000
    30.504    -4.500     0.500
    41.072    -4.500     1.000
    46.517    -4.500     1.500
    50.267    -4.500     2.000
    52.873    -4.500     2.500
    54.734    -4.500     3.000
    56.482    -4.500     3.500
    58.355    -4.500     4.000
    61.838    -4.500     4.500
    66.645    -4.500     5.000
    69.571    -4.500     5.500
    71.558    -4.500     6.000
    77.528    -4.500     8.000
    81.800    -4.500    10.000
    84.758    -4.500    12.000
    86.958    -4.500    14.000
    88.760    -4.500    16.000
    90.224    -4.500    18.000
    91.510    -4.500    20.000
    92.519    -4.500    22.000
    93.425    -4.500    24.000
    93.733    -4.500    25.000
     0.527    -4.000     0.000
    44.948    -4.000     0.500
    81.674    -4.000     1.000
    99.118    -4.000     1.500
   105.555    -4.000     2.000
   109.453    -4.000     2.500
   112.289    -4.000     3.000
   114.241    -4.000     3.500
   115.756    -4.000     4.000
   118.079    -4.000     4.500
   123.738    -4.000     5.000
   129.613    -4.000     5.500
   132.675    -4.000     6.000
   134.743    -4.000     6.500
   136.246    -4.000     7.000
   137.535    -4.000     7.500
   138.487    -4.000     8.000
   141.584    -4.000    10.000
   143.149    -4.000    12.000
   143.825    -4.000    14.000
   143.992    -4.000    16.000
   143.731    -4.000    18.000
   142.998    -4.000    20.000
!   141.970    -4.000    22.000
     0.574    -3.500     0.000
    48.686    -3.500     0.500
    94.487    -3.500     1.000
   133.458    -3.500     1.500
   156.685    -3.500     2.000
   165.364    -3.500     2.500
   169.394    -3.500     3.000
   171.768    -3.500     3.500
   173.217    -3.500     4.000
   173.927    -3.500     4.500
   176.008    -3.500     5.000
   183.138    -3.500     5.500
   189.636    -3.500     6.000
   192.867    -3.500     6.500
   194.769    -3.500     7.000
   196.001    -3.500     7.500
   196.947    -3.500     8.000
   197.491    -3.500     8.500
   197.900    -3.500     9.000
   198.189    -3.500     9.500
   198.340    -3.500    10.000
   198.359    -3.500    10.500
   197.953    -3.500    12.500
   196.548    -3.500    14.500
!   194.275    -3.500    16.500
     0.609    -3.000     0.000
    50.446    -3.000     0.500
    99.187    -3.000     1.000
   144.620    -3.000     1.500
   183.103    -3.000     2.000
   210.336    -3.000     2.500
   222.737    -3.000     3.000
   227.562    -3.000     3.500
   229.854    -3.000     4.000
   230.731    -3.000     4.500
   230.696    -3.000     5.000
   230.825    -3.000     5.500
   236.176    -3.000     6.000
   244.255    -3.000     6.500
   248.580    -3.000     7.000
   250.837    -3.000     7.500
   251.972    -3.000     8.000
   252.557    -3.000     8.500
   252.780    -3.000     9.000
   252.805    -3.000     9.500
   252.610    -3.000    10.000
   252.274    -3.000    10.500
   251.724    -3.000    11.000
   251.070    -3.000    11.500
!   250.290    -3.000    12.000
     0.605    -2.500     0.000
    51.493    -2.500     0.500
   101.717    -2.500     1.000
   149.471    -2.500     1.500
   192.355    -2.500     2.000
   228.241    -2.500     2.500
   255.263    -2.500     3.000
   272.226    -2.500     3.500
   280.298    -2.500     4.000
   283.533    -2.500     4.500
   285.177    -2.500     5.000
   285.800    -2.500     5.500
   285.124    -2.500     6.000
   284.055    -2.500     6.500
   286.214    -2.500     7.000
   291.964    -2.500     7.500
   297.393    -2.500     8.000
   301.027    -2.500     8.500
   302.693    -2.500     9.000
   303.300    -2.500     9.500
!   303.366    -2.500    10.000
     0.637    -2.000     0.000
    52.027    -2.000     0.500
   102.968    -2.000     1.000
   151.744    -2.000     1.500
   196.206    -2.000     2.000
   234.371    -2.000     2.500
   264.452    -2.000     3.000
   284.894    -2.000     3.500
   298.600    -2.000     4.000
   315.298    -2.000     4.500
   328.382    -2.000     5.000
   335.078    -2.000     5.500
   337.344    -2.000     6.000
   337.350    -2.000     6.500
   335.801    -2.000     7.000
   333.408    -2.000     7.500
   332.927    -2.000     8.000
   336.256    -2.000     8.500
!   340.610    -2.000     9.000
     0.643    -1.500     0.000
    52.367    -1.500     0.500
   103.682    -1.500     1.000
   152.828    -1.500     1.500
   197.730    -1.500     2.000
   236.528    -1.500     2.500
   266.901    -1.500     3.000
   286.651    -1.500     3.500
   303.054    -1.500     4.000
   323.402    -1.500     4.500
   343.273    -1.500     5.000
   360.465    -1.500     5.500
   372.844    -1.500     6.000
   379.216    -1.500     6.500
   381.288    -1.500     7.000
   380.681    -1.500     7.500
!   378.480    -1.500     8.000
     0.656    -1.000     0.000
    52.681    -1.000     0.500
   104.292    -1.000     1.000
   153.790    -1.000     1.500
   198.962    -1.000     2.000
   238.037    -1.000     2.500
   268.664    -1.000     3.000
   286.821    -1.000     3.500
   305.475    -1.000     4.000
   327.467    -1.000     4.500
   349.327    -1.000     5.000
   369.641    -1.000     5.500
   387.936    -1.000     6.000
   403.371    -1.000     6.500
   414.615    -1.000     7.000
!   420.189    -1.000     7.500
     0.649    -0.500     0.000
    53.115    -0.500     0.500
   105.159    -0.500     1.000
   155.110    -0.500     1.500
   200.761    -0.500     2.000
   239.904    -0.500     2.500
   270.340    -0.500     3.000
   288.098    -0.500     3.500
   308.024    -0.500     4.000
   330.969    -0.500     4.500
   353.829    -0.500     5.000
   375.648    -0.500     5.500
   395.798    -0.500     6.000
   414.584    -0.500     6.500
!   431.065    -0.500     7.000
     0.653     0.000     0.000
    53.483     0.000     0.500
   105.886     0.000     1.000
   156.132     0.000     1.500
   201.980     0.000     2.000
   241.388     0.000     2.500
   271.292     0.000     3.000
   288.654     0.000     3.500
   309.766     0.000     4.000
   333.072     0.000     4.500
   356.586     0.000     5.000
   378.829     0.000     5.500
   400.130     0.000     6.000
   420.060     0.000     6.500
!   429.915     0.000     7.000
