! File: C:\Documents and Settings\PROBER\Desktop\Date & Meas\2014\20140508_NOC\T600_03.ivc 
! Comment: 
! Date: Thursday, May 08, 2014 12:47:28
! Frequency: 0 GHz
! Char.Impedances: Source = 50 + 0j Ohm   Load = 50 + 0j Ohm
! Load Frequencies:  N\A 
! Load Impedances (Polar):  N\A 
! Load Impedances:  N\A 
! Source Frequencies:  N\A 
! Source Impedances (Polar):  N\A 
! Source Impedances:  N\A 
! Setup: C:\Documents and Settings\PROBER\Desktop\Date & Meas\2014\20140508_NOC\CW_IV_curve.set 
! Reference Plane: DUT 
! --------------------------------------------------------
! TITLES: I2[mA]   _V1Set[V]   _V2Set[V]   
! --------------------------------------------------------
     0.282    -6.000     0.000
     0.282    -6.000     0.500
     0.282    -6.000     1.000
     0.275    -6.000     1.500
     0.263    -6.000     2.000
     0.260    -6.000     2.500
     0.291    -6.000     4.500
     0.260    -6.000     6.500
     0.263    -6.000     8.500
     0.256    -6.000    10.500
     0.244    -6.000    12.500
     0.228    -6.000    14.500
     0.253    -6.000    16.500
     0.282    -6.000    18.500
     0.313    -6.000    20.500
     0.332    -6.000    22.500
     0.363    -6.000    24.500
     0.313    -6.000    25.000
     0.080    -5.500     0.000
     0.184    -5.500     0.500
     0.222    -5.500     1.000
     0.225    -5.500     1.500
     0.241    -5.500     2.000
     0.256    -5.500     2.500
     0.266    -5.500     3.000
     0.294    -5.500     3.500
     0.288    -5.500     4.000
     0.370    -5.500     6.000
     0.420    -5.500     8.000
     0.508    -5.500    10.000
     0.665    -5.500    12.000
     0.791    -5.500    14.000
     0.995    -5.500    16.000
     1.294    -5.500    18.000
     1.555    -5.500    20.000
     1.596    -5.500    20.500
     1.712    -5.500    21.000
     1.702    -5.500    21.500
     1.800    -5.500    22.000
     1.979    -5.500    22.500
     1.989    -5.500    23.000
     2.114    -5.500    23.500
     2.322    -5.500    24.000
     2.391    -5.500    24.500
     2.473    -5.500    25.000
     0.159    -5.000     0.000
     4.793    -5.000     0.500
     7.050    -5.000     1.000
     9.058    -5.000     1.500
    10.951    -5.000     2.000
    12.651    -5.000     2.500
    14.211    -5.000     3.000
    15.556    -5.000     3.500
    16.644    -5.000     4.000
    17.543    -5.000     4.500
    18.398    -5.000     5.000
    19.278    -5.000     5.500
    20.061    -5.000     6.000
    20.721    -5.000     6.500
    21.582    -5.000     7.000
    22.267    -5.000     7.500
    22.962    -5.000     8.000
    23.695    -5.000     8.500
    24.393    -5.000     9.000
    25.150    -5.000     9.500
    25.851    -5.000    10.000
    26.650    -5.000    10.500
    27.319    -5.000    11.000
    28.045    -5.000    11.500
    28.715    -5.000    12.000
    29.378    -5.000    12.500
    29.997    -5.000    13.000
    30.526    -5.000    13.500
    31.157    -5.000    14.000
    31.770    -5.000    14.500
    32.314    -5.000    15.000
    32.861    -5.000    15.500
    33.436    -5.000    16.000
    33.968    -5.000    16.500
    34.490    -5.000    17.000
    35.021    -5.000    17.500
    35.549    -5.000    18.000
    36.049    -5.000    18.500
    36.558    -5.000    19.000
    37.039    -5.000    19.500
    39.161    -5.000    21.500
    41.176    -5.000    23.500
    42.590    -5.000    25.000
     0.363    -4.500     0.000
    34.090    -4.500     0.500
    47.375    -4.500     1.000
    52.958    -4.500     1.500
    56.717    -4.500     2.000
    59.091    -4.500     2.500
    60.848    -4.500     3.000
    62.398    -4.500     3.500
    63.995    -4.500     4.000
    66.365    -4.500     4.500
    69.562    -4.500     5.000
    72.529    -4.500     5.500
    78.568    -4.500     7.500
    82.667    -4.500     9.500
    85.669    -4.500    11.500
    87.842    -4.500    13.500
    89.545    -4.500    15.500
    90.976    -4.500    17.500
    92.023    -4.500    19.500
    92.969    -4.500    21.500
    93.884    -4.500    23.500
    94.443    -4.500    25.000
     0.423    -4.000     0.000
    44.665    -4.000     0.500
    82.997    -4.000     1.000
   103.688    -4.000     1.500
   110.456    -4.000     2.000
   114.172    -4.000     2.500
   116.662    -4.000     3.000
   118.692    -4.000     3.500
   120.299    -4.000     4.000
   121.937    -4.000     4.500
   125.159    -4.000     5.000
   130.522    -4.000     5.500
   134.140    -4.000     6.000
   136.145    -4.000     6.500
   137.607    -4.000     7.000
   138.789    -4.000     7.500
   139.716    -4.000     8.000
   142.401    -4.000    10.000
   143.580    -4.000    12.000
   144.089    -4.000    14.000
   144.171    -4.000    16.000
   143.900    -4.000    18.000
   143.250    -4.000    20.000
!   142.423    -4.000    22.000
     0.458    -3.500     0.000
    47.749    -3.500     0.500
    93.337    -3.500     1.000
   133.197    -3.500     1.500
   159.077    -3.500     2.000
   168.407    -3.500     2.500
   172.497    -3.500     3.000
   175.125    -3.500     3.500
   176.738    -3.500     4.000
   177.898    -3.500     4.500
   179.029    -3.500     5.000
   182.440    -3.500     5.500
   188.828    -3.500     6.000
   192.892    -3.500     6.500
   195.068    -3.500     7.000
   196.338    -3.500     7.500
   197.152    -3.500     8.000
   197.645    -3.500     8.500
   197.941    -3.500     9.000
   198.098    -3.500     9.500
   198.186    -3.500    10.000
   198.161    -3.500    10.500
   197.394    -3.500    12.500
   195.876    -3.500    14.500
!   193.741    -3.500    16.500
     0.483    -3.000     0.000
    49.113    -3.000     0.500
    97.159    -3.000     1.000
   142.473    -3.000     1.500
   181.620    -3.000     2.000
   210.342    -3.000     2.500
   224.180    -3.000     3.000
   229.640    -3.000     3.500
   232.495    -3.000     4.000
   234.013    -3.000     4.500
   234.642    -3.000     5.000
   234.792    -3.000     5.500
   236.600    -3.000     6.000
   242.136    -3.000     6.500
   247.354    -3.000     7.000
   250.114    -3.000     7.500
   251.422    -3.000     8.000
   251.997    -3.000     8.500
   252.186    -3.000     9.000
   252.051    -3.000     9.500
   251.708    -3.000    10.000
   251.230    -3.000    10.500
   250.677    -3.000    11.000
   250.004    -3.000    11.500
   249.149    -3.000    12.000
!   248.212    -3.000    12.500
     0.495    -2.500     0.000
    49.868    -2.500     0.500
    99.083    -2.500     1.000
   146.343    -2.500     1.500
   189.271    -2.500     2.000
   225.689    -2.500     2.500
   253.286    -2.500     3.000
   271.446    -2.500     3.500
   280.537    -2.500     4.000
   284.586    -2.500     4.500
   287.082    -2.500     5.000
   288.384    -2.500     5.500
   288.531    -2.500     6.000
   287.840    -2.500     6.500
   287.758    -2.500     7.000
   291.464    -2.500     7.500
   296.557    -2.500     8.000
   300.100    -2.500     8.500
   301.948    -2.500     9.000
   302.592    -2.500     9.500
!   302.492    -2.500    10.000
     0.533    -2.000     0.000
    50.405    -2.000     0.500
   100.309    -2.000     1.000
   148.540    -2.000     1.500
   192.855    -2.000     2.000
   231.344    -2.000     2.500
   261.906    -2.000     3.000
   283.175    -2.000     3.500
   296.661    -2.000     4.000
   314.010    -2.000     4.500
   328.426    -2.000     5.000
   336.649    -2.000     5.500
   339.796    -2.000     6.000
   340.626    -2.000     6.500
   339.868    -2.000     7.000
   338.334    -2.000     7.500
   336.734    -2.000     8.000
   337.951    -2.000     8.500
!   341.104    -2.000     9.000
     0.514    -1.500     0.000
    50.173    -1.500     0.500
    99.690    -1.500     1.000
   147.176    -1.500     1.500
   190.931    -1.500     2.000
   230.071    -1.500     2.500
   261.176    -1.500     3.000
   282.964    -1.500     3.500
   296.887    -1.500     4.000
   318.574    -1.500     4.500
   340.497    -1.500     5.000
   358.230    -1.500     5.500
   372.885    -1.500     6.000
   382.105    -1.500     6.500
   385.437    -1.500     7.000
   385.880    -1.500     7.500
!   384.793    -1.500     8.000
     0.530    -1.000     0.000
    50.971    -1.000     0.500
   101.441    -1.000     1.000
   150.213    -1.000     1.500
   195.156    -1.000     2.000
   234.481    -1.000     2.500
   265.247    -1.000     3.000
   284.658    -1.000     3.500
   303.274    -1.000     4.000
   325.405    -1.000     4.500
   347.733    -1.000     5.000
   368.474    -1.000     5.500
   387.235    -1.000     6.000
   403.890    -1.000     6.500
   417.586    -1.000     7.000
!   425.596    -1.000     7.500
     0.517    -0.500     0.000
    51.295    -0.500     0.500
   102.101    -0.500     1.000
   151.228    -0.500     1.500
   196.074    -0.500     2.000
   234.959    -0.500     2.500
   266.218    -0.500     3.000
   284.608    -0.500     3.500
   304.224    -0.500     4.000
   326.999    -0.500     4.500
   350.248    -0.500     5.000
   373.089    -0.500     5.500
   393.629    -0.500     6.000
   412.538    -0.500     6.500
!   430.748    -0.500     7.000
     0.533     0.000     0.000
    51.546     0.000     0.500
   102.572     0.000     1.000
   152.030     0.000     1.500
   197.605     0.000     2.000
   236.883     0.000     2.500
   267.501     0.000     3.000
   285.935     0.000     3.500
   306.446     0.000     4.000
   330.064     0.000     4.500
   353.678     0.000     5.000
   376.418     0.000     5.500
   397.860     0.000     6.000
   418.142     0.000     6.500
!   437.139     0.000     7.000
